Analyzer:	Hewlett-Packard, E4407B, SG45102005, A.14.06
Angle Counter:	SA 1885 FIRMWARE # A323537A
Number of angles:	2026
Start to End Frequency	2022.5000MHz	2022.5000MHz

Field Amplitude
		Frequencies [MHz]
Angle	2022.50
-179.36	-66.539
-179.39	-67.113
-179.45	-67.225
-179.54	-66.868
-179.61	-67.062
-179.67	-66.662
-179.78	-66.662
-179.85	-66.915
-179.95	-67.019
179.97	-67.156
179.91	-67.012
179.79	-66.364
179.62	-66.997
179.50	-67.665
179.37	-66.807
179.19	-66.944
179.07	-66.537
178.88	-66.995
178.75	-67.160
178.62	-67.160
178.43	-67.882
178.29	-66.839
178.10	-66.890
177.90	-67.794
177.77	-68.231
177.55	-68.231
177.39	-68.749
177.16	-69.022
177.01	-69.022
176.86	-69.203
176.63	-69.828
176.48	-69.828
176.32	-69.796
176.08	-69.336
175.93	-69.786
175.70	-69.878
175.55	-69.761
175.31	-70.568
175.16	-70.782
174.91	-70.214
174.75	-69.845
174.60	-69.869
174.35	-70.190
174.18	-70.070
173.94	-70.070
173.78	-70.479
173.54	-70.250
173.39	-70.250
173.16	-72.321
172.99	-70.783
172.84	-70.783
172.60	-72.191
172.43	-70.901
172.20	-71.985
172.04	-72.434
171.79	-72.502
171.63	-72.445
171.40	-73.640
171.23	-72.430
171.07	-74.134
170.83	-74.134
170.68	-75.533
170.44	-74.949
170.20	-74.949
170.04	-77.199
169.80	-75.586
169.64	-75.586
169.48	-76.651
169.24	-75.388
169.08	-75.388
168.84	-77.107
168.69	-77.863
168.44	-75.917
168.28	-77.784
168.05	-79.137
167.88	-78.312
167.65	-78.312
167.50	-82.278
167.34	-79.639
167.09	-79.639
166.93	-80.147
166.69	-79.568
166.53	-79.568
166.29	-81.128
166.13	-81.599
165.89	-83.302
165.73	-79.726
165.49	-81.599
165.33	-83.445
165.09	-83.445
164.94	-79.118
164.77	-79.128
164.53	-79.128
164.37	-77.375
164.13	-76.882
163.96	-76.148
163.73	-73.998
163.57	-75.133
163.41	-73.076
163.16	-71.650
162.92	-71.202
162.68	-70.638
162.44	-69.516
162.28	-69.565
162.12	-68.999
161.88	-69.018
161.57	-67.250
161.41	-66.212
161.17	-66.291
161.01	-66.337
160.85	-65.815
160.61	-65.563
160.37	-65.485
160.21	-65.207
159.96	-64.991
159.73	-65.002
159.56	-64.326
159.32	-64.817
159.16	-64.244
158.93	-64.583
158.77	-64.177
158.53	-64.538
158.37	-64.269
158.13	-64.384
157.89	-64.384
157.74	-64.663
157.57	-64.962
157.34	-65.043
157.18	-64.944
156.93	-64.987
156.77	-64.869
156.54	-65.299
156.38	-65.441
156.21	-65.803
155.99	-66.451
155.83	-66.090
155.58	-66.036
155.43	-65.698
155.27	-67.351
155.03	-67.522
154.79	-68.354
154.63	-69.013
154.47	-69.161
154.22	-69.962
154.06	-69.717
153.82	-70.331
153.66	-70.582
153.43	-70.332
153.27	-71.701
153.04	-71.350
152.88	-71.307
152.65	-72.497
152.48	-72.497
152.24	-73.516
152.09	-72.682
151.92	-72.682
151.68	-72.813
151.52	-72.042
151.28	-72.042
151.11	-70.582
150.87	-71.071
150.72	-71.071
150.48	-70.255
150.33	-70.190
150.09	-69.797
149.93	-69.178
149.69	-69.379
149.53	-69.185
149.37	-68.595
149.13	-68.620
148.97	-68.599
148.73	-67.113
148.57	-67.051
148.33	-67.321
148.17	-66.692
148.01	-66.512
147.78	-67.053
147.62	-66.865
147.38	-67.360
147.14	-67.148
146.99	-67.113
146.83	-66.944
146.58	-66.904
146.43	-67.511
146.27	-68.062
146.03	-67.048
145.87	-67.048
145.64	-67.947
145.47	-68.121
145.31	-68.121
145.08	-69.603
144.92	-69.602
144.68	-69.602
144.53	-71.071
144.37	-71.015
144.13	-71.009
143.97	-71.072
143.74	-71.702
143.57	-72.171
143.33	-72.896
143.17	-72.768
142.94	-72.232
142.78	-72.507
142.54	-73.258
142.39	-73.148
142.15	-75.055
141.99	-73.677
141.84	-73.553
141.60	-74.109
141.36	-74.871
141.20	-74.653
140.96	-75.568
140.80	-75.710
140.57	-76.106
140.40	-77.011
140.24	-76.295
140.00	-77.693
139.85	-79.224
139.61	-79.881
139.45	-79.433
139.29	-79.433
139.06	-79.071
138.90	-79.429
138.66	-79.429
138.50	-80.829
138.34	-77.020
138.10	-76.929
137.87	-75.729
137.71	-75.825
137.54	-76.208
137.31	-74.873
137.14	-74.839
136.90	-74.407
136.74	-75.039
136.50	-72.897
136.35	-73.627
136.19	-73.816
135.96	-72.383
135.80	-71.473
135.55	-71.473
135.40	-70.814
135.24	-71.303
135.00	-71.303
134.84	-70.183
134.60	-70.110
134.44	-70.110
134.20	-69.668
134.04	-69.223
133.80	-69.223
133.64	-69.216
133.41	-69.671
133.17	-69.225
132.94	-69.446
132.78	-70.068
132.62	-70.946
132.37	-71.200
132.22	-72.362
132.06	-72.362
131.81	-72.493
131.65	-73.830
131.42	-73.278
131.25	-75.028
131.01	-75.126
130.86	-75.820
130.62	-74.473
130.46	-75.730
130.23	-75.999
130.07	-75.811
129.90	-75.862
129.67	-75.809
129.51	-75.522
129.34	-74.870
129.10	-74.114
128.94	-74.114
128.70	-74.533
128.53	-74.769
128.38	-74.769
128.14	-72.509
127.99	-72.182
127.75	-71.245
127.60	-71.262
127.44	-71.634
127.20	-73.106
127.04	-73.106
126.81	-72.180
126.65	-71.695
126.42	-71.695
126.26	-73.254
126.09	-71.830
125.85	-71.830
125.62	-70.859
125.45	-70.808
125.21	-70.808
125.06	-69.745
124.90	-70.772
124.66	-70.772
124.51	-70.733
124.27	-70.494
124.10	-70.494
123.94	-70.494
123.71	-71.751
123.54	-73.797
123.30	-73.797
123.14	-74.984
122.90	-78.479
122.73	-78.479
122.50	-78.632
122.33	-79.539
122.10	-79.539
121.95	-77.888
121.71	-80.174
121.55	-80.174
121.31	-79.726
121.15	-85.764
120.91	-85.787
120.75	-80.161
120.51	-83.680
120.35	-82.628
120.11	-85.932
119.95	-85.782
119.72	-83.919
119.56	-83.919
119.40	-79.334
119.24	-76.311
119.00	-76.902
118.84	-75.591
118.61	-73.603
118.45	-73.147
118.28	-72.373
118.05	-71.290
117.89	-70.946
117.65	-70.946
117.49	-69.867
117.34	-69.274
117.09	-69.274
116.93	-69.281
116.70	-68.160
116.54	-68.419
116.39	-67.367
116.15	-67.353
116.00	-66.939
115.75	-67.040
115.60	-67.039
115.36	-67.095
115.20	-67.095
114.95	-66.750
114.72	-65.659
114.55	-65.659
114.39	-66.705
114.15	-66.451
113.99	-66.453
113.83	-66.453
113.60	-67.091
113.28	-67.367
113.12	-67.367
112.88	-68.424
112.73	-69.393
112.56	-69.393
112.33	-69.393
112.17	-69.393
111.92	-73.305
111.76	-72.509
111.60	-72.509
111.36	-71.705
111.12	-72.757
110.96	-72.757
110.81	-72.757
110.57	-70.061
110.41	-70.306
110.18	-70.306
110.01	-69.353
109.78	-69.508
109.62	-69.508
109.38	-70.599
109.21	-71.887
108.97	-71.887
108.81	-73.072
108.57	-75.427
108.34	-75.693
108.10	-76.573
107.94	-76.407
107.79	-76.647
107.55	-76.217
107.39	-73.836
107.16	-74.885
107.00	-74.885
106.83	-73.105
106.60	-71.995
106.44	-71.995
106.20	-70.794
105.95	-69.624
105.80	-69.624
105.56	-69.488
105.39	-69.222
105.24	-69.927
105.01	-70.046
104.84	-69.772
104.61	-70.164
104.45	-71.435
104.21	-72.304
104.05	-72.497
103.82	-75.884
103.66	-75.697
103.34	-77.805
103.18	-80.579
102.94	-84.088
102.70	-84.088
102.54	-80.197
102.22	-78.301
101.99	-78.301
101.84	-76.548
101.60	-74.958
101.44	-75.495
101.28	-73.939
101.04	-72.885
100.80	-75.189
100.57	-73.906
100.40	-74.558
100.16	-73.490
100.00	-75.395
99.76	-76.364
99.60	-78.414
99.37	-79.413
99.22	-78.392
98.97	-79.282
98.82	-77.553
98.58	-75.341
98.42	-75.281
98.19	-75.281
98.03	-74.558
97.87	-74.615
97.63	-74.615
97.47	-75.253
97.24	-77.367
97.07	-76.232
96.84	-76.716
96.69	-78.738
96.53	-78.738
96.29	-78.738
96.14	-77.962
95.90	-75.727
95.74	-75.450
95.59	-71.015
95.36	-69.878
95.20	-70.005
94.97	-67.390
94.82	-66.912
94.66	-66.551
94.42	-66.551
94.27	-65.460
94.11	-65.108
93.87	-65.108
93.71	-64.766
93.49	-64.736
93.33	-64.542
93.10	-65.766
92.94	-65.723
92.70	-65.752
92.54	-66.465
92.38	-66.168
92.14	-66.810
91.98	-67.731
91.75	-67.570
91.59	-67.900
91.35	-67.900
91.19	-67.545
90.95	-67.883
90.80	-67.883
90.64	-67.173
90.41	-67.749
90.25	-67.749
90.01	-66.618
89.85	-66.852
89.70	-66.870
89.45	-66.694
89.29	-67.325
89.14	-67.377
88.89	-67.627
88.73	-67.532
88.50	-69.161
88.34	-69.974
88.10	-70.400
87.95	-72.446
87.72	-72.446
87.56	-75.727
87.40	-77.644
87.17	-77.644
87.01	-79.267
86.76	-81.126
86.61	-81.135
86.38	-77.887
86.21	-77.202
86.05	-75.497
85.81	-75.864
85.65	-73.761
85.41	-74.937
85.26	-73.860
85.01	-71.941
84.86	-71.130
84.71	-71.130
84.47	-70.673
84.31	-70.720
84.07	-70.720
83.91	-70.070
83.75	-69.560
83.51	-69.560
83.28	-69.070
83.11	-69.219
82.87	-69.646
82.72	-69.829
82.48	-69.587
82.32	-69.146
82.09	-70.531
81.93	-71.298
81.69	-71.383
81.54	-73.720
81.30	-72.968
81.05	-75.836
80.89	-75.836
80.66	-79.934
80.50	-83.662
80.25	-83.662
80.10	-81.459
79.85	-83.900
79.69	-78.903
79.54	-76.399
79.30	-76.751
79.06	-73.442
78.82	-73.704
78.58	-73.047
78.42	-73.047
78.18	-72.968
78.02	-71.819
77.78	-72.193
77.62	-72.581
77.38	-70.959
77.22	-71.489
76.97	-70.428
76.82	-70.776
76.58	-71.271
76.35	-70.684
76.19	-70.313
75.95	-71.428
75.80	-70.839
75.64	-71.480
75.40	-71.824
75.24	-71.824
75.00	-71.709
74.84	-72.772
74.60	-72.772
74.44	-75.293
74.21	-76.468
74.04	-75.832
73.89	-78.733
73.65	-83.815
73.42	-86.042
73.25	-82.629
73.02	-79.943
72.87	-79.412
72.62	-74.951
72.46	-76.036
72.23	-75.251
72.07	-75.251
71.82	-72.815
71.67	-72.396
71.42	-72.396
71.25	-71.022
71.02	-70.979
70.86	-70.979
70.70	-71.534
70.47	-71.548
70.31	-72.375
70.07	-72.579
69.91	-73.515
69.67	-73.598
69.51	-73.750
69.27	-76.512
69.12	-74.184
68.96	-75.677
68.71	-78.064
68.48	-79.654
68.32	-81.781
68.08	-80.733
67.92	-81.452
67.69	-79.672
67.53	-79.674
67.30	-77.878
67.14	-75.295
66.90	-75.589
66.74	-74.119
66.50	-73.801
66.26	-73.487
66.10	-72.646
65.79	-71.831
65.62	-71.772
65.46	-71.597
65.23	-71.480
65.07	-70.677
64.83	-70.881
64.61	-71.298
64.44	-71.940
64.20	-72.258
64.04	-72.391
63.81	-72.385
63.64	-71.604
63.41	-72.493
63.25	-72.579
63.01	-72.056
62.85	-73.867
62.69	-72.578
62.45	-73.546
62.22	-74.992
62.06	-73.426
61.82	-74.295
61.66	-75.686
61.51	-73.910
61.27	-74.651
61.11	-74.651
60.87	-74.199
60.72	-72.251
60.48	-73.807
60.31	-71.070
60.08	-72.328
59.84	-71.649
59.68	-70.769
59.45	-70.207
59.21	-70.207
59.05	-69.150
58.81	-69.309
58.66	-69.309
58.41	-69.734
58.26	-69.949
58.02	-69.949
57.86	-71.664
57.63	-71.089
57.47	-72.175
57.30	-73.799
57.06	-74.081
56.91	-74.883
56.68	-72.633
56.44	-73.679
56.28	-73.679
55.96	-72.772
55.81	-71.765
55.65	-71.765
55.41	-71.318
55.25	-69.873
55.02	-70.440
54.78	-69.976
54.62	-69.809
54.38	-68.998
54.14	-69.355
53.97	-69.112
53.74	-69.112
53.59	-69.953
53.35	-70.411
53.12	-70.411
52.96	-71.262
52.80	-70.641
52.56	-70.641
52.41	-72.076
52.17	-72.962
51.93	-73.112
51.77	-73.999
51.54	-74.486
51.37	-74.486
51.14	-74.595
50.99	-74.709
50.75	-73.790
50.59	-74.077
50.36	-73.409
50.20	-72.053
49.97	-71.411
49.81	-72.631
49.65	-71.493
49.41	-70.239
49.26	-69.366
49.02	-70.055
48.77	-70.055
48.62	-67.674
48.38	-67.224
48.22	-67.224
47.99	-66.705
47.83	-65.701
47.68	-65.701
47.44	-65.166
47.21	-64.910
47.05	-65.112
46.81	-64.663
46.58	-64.529
46.42	-64.676
46.18	-65.163
46.02	-64.544
45.86	-64.584
45.62	-64.660
45.46	-64.683
45.23	-64.345
45.07	-64.345
44.83	-64.399
44.69	-64.345
44.45	-64.345
44.29	-63.968
44.13	-63.616
43.89	-63.616
43.73	-62.831
43.50	-62.961
43.34	-62.961
43.10	-62.545
42.94	-62.548
42.70	-62.396
42.54	-61.667
42.31	-61.509
42.08	-61.240
41.92	-61.553
41.69	-61.291
41.53	-61.291
41.29	-61.129
41.13	-61.111
40.90	-61.395
40.75	-61.537
40.58	-61.449
40.35	-61.619
40.19	-62.101
39.95	-62.124
39.72	-62.379
39.56	-62.663
39.41	-63.034
39.17	-63.238
38.94	-64.195
38.79	-63.827
38.54	-64.108
38.39	-64.304
38.23	-64.329
38.00	-65.274
37.84	-65.651
37.61	-65.662
37.44	-66.405
37.21	-66.405
37.05	-66.799
36.82	-66.609
36.58	-66.924
36.35	-66.317
36.20	-66.910
35.96	-66.700
35.80	-65.948
35.57	-66.770
35.41	-65.757
35.17	-66.170
35.01	-65.020
34.78	-65.020
34.61	-65.270
34.38	-65.694
34.21	-65.694
34.05	-65.904
33.82	-65.746
33.66	-65.746
33.42	-65.352
33.19	-66.000
33.04	-66.252
32.80	-66.895
32.64	-67.215
32.41	-67.314
32.25	-68.683
32.01	-68.364
31.86	-68.175
31.61	-69.224
31.38	-69.548
31.22	-69.548
30.98	-71.354
30.82	-72.518
30.60	-72.899
30.44	-73.889
30.20	-74.556
30.05	-73.741
29.81	-74.084
29.65	-77.731
29.49	-73.766
29.26	-73.766
29.10	-74.431
28.85	-73.396
28.70	-73.396
28.45	-72.813
28.29	-72.962
28.06	-72.637
27.91	-71.428
27.67	-72.515
27.51	-72.263
27.28	-70.531
27.03	-70.351
26.88	-70.212
26.64	-69.360
26.48	-70.149
26.32	-69.235
26.08	-68.759
25.92	-68.181
25.68	-68.242
25.52	-66.799
25.29	-66.320
25.13	-65.505
24.90	-65.505
24.75	-65.955
24.51	-66.159
24.35	-66.159
24.11	-65.352
23.96	-65.397
23.72	-65.397
23.56	-65.074
23.32	-65.261
23.16	-65.261
22.92	-65.202
22.77	-64.917
22.53	-65.307
22.37	-65.496
22.14	-65.703
21.90	-65.703
21.67	-66.524
21.51	-66.964
21.27	-66.964
21.11	-67.175
20.88	-67.847
20.72	-67.961
20.47	-68.554
20.31	-68.122
20.07	-67.747
19.90	-67.943
19.67	-68.424
19.35	-68.424
19.19	-69.054
19.04	-69.513
18.80	-69.513
18.63	-69.682
18.40	-69.869
18.24	-69.515
18.00	-70.070
17.84	-69.347
17.61	-70.113
17.44	-70.457
17.13	-71.251
16.97	-71.251
16.73	-72.500
16.57	-73.064
16.43	-73.064
16.18	-75.140
16.02	-73.869
15.79	-76.016
15.63	-74.428
15.38	-73.238
15.23	-73.271
14.99	-69.875
14.83	-69.217
14.60	-68.865
14.44	-66.506
14.21	-65.127
14.05	-64.810
13.91	-63.657
13.71	-63.133
13.59	-62.893
13.40	-62.893
13.28	-61.643
13.11	-61.456
12.98	-61.456
12.80	-60.444
12.62	-60.113
12.50	-60.113
12.32	-59.441
12.14	-59.510
11.96	-59.148
11.85	-59.218
11.68	-59.123
11.57	-59.123
11.47	-58.867
11.28	-58.808
11.13	-58.759
11.04	-58.893
10.90	-59.057
10.77	-59.057
10.69	-59.150
10.57	-59.276
10.49	-59.276
10.38	-59.631
10.32	-59.684
10.24	-59.867
10.19	-59.946
10.11	-59.896
10.06	-60.172
10.01	-60.329
9.91	-60.894
9.86	-60.894
9.78	-61.062
9.73	-61.544
9.65	-61.544
9.60	-61.868
9.53	-62.164
9.48	-62.164
9.40	-62.733
9.35	-63.587
9.27	-63.587
9.22	-63.578
9.15	-64.244
9.10	-64.383
9.01	-65.906
8.96	-65.746
8.89	-65.697
8.83	-66.772
8.76	-67.381
8.71	-67.898
8.63	-68.117
8.58	-68.626
8.53	-67.878
8.46	-68.563
8.37	-68.075
8.32	-67.059
8.25	-67.286
8.20	-66.250
8.12	-66.069
8.08	-64.928
8.00	-64.392
7.95	-63.492
7.87	-62.554
7.82	-62.062
7.74	-61.799
7.69	-60.334
7.61	-59.913
7.57	-59.602
7.49	-59.048
7.44	-58.623
7.37	-58.355
7.32	-57.657
7.24	-57.160
7.19	-56.868
7.11	-56.157
7.06	-55.921
7.01	-55.305
6.93	-55.305
6.88	-54.604
6.81	-54.181
6.73	-54.181
6.68	-53.437
6.63	-53.166
6.55	-53.166
6.50	-52.569
6.42	-52.117
6.37	-52.117
6.30	-51.441
6.22	-51.162
6.17	-51.108
6.09	-50.478
6.04	-50.341
5.96	-50.144
5.91	-49.671
5.83	-49.414
5.78	-49.333
5.70	-48.807
5.65	-48.760
5.58	-48.604
5.52	-48.011
5.45	-47.876
5.40	-47.768
5.32	-47.363
5.27	-47.181
5.20	-47.031
5.12	-46.642
5.07	-46.421
4.99	-46.452
4.94	-46.079
4.89	-45.825
4.82	-45.825
4.77	-45.411
4.69	-45.231
4.64	-45.091
4.56	-44.714
4.46	-44.444
4.41	-44.444
4.36	-44.096
4.28	-43.918
4.23	-43.826
4.15	-43.587
4.10	-43.500
4.03	-43.326
3.97	-43.326
3.92	-43.013
3.84	-42.807
3.79	-42.807
3.72	-42.495
3.64	-42.322
3.59	-42.322
3.52	-41.950
3.47	-41.818
3.39	-41.818
3.34	-41.515
3.26	-41.383
3.20	-41.355
3.13	-41.092
3.08	-40.961
3.03	-40.894
2.95	-40.732
2.88	-40.553
2.83	-40.538
2.75	-40.371
2.70	-40.141
2.64	-40.085
2.57	-39.909
2.49	-39.826
2.44	-39.752
2.37	-39.571
2.32	-39.482
2.24	-39.399
2.20	-39.399
2.12	-39.167
2.07	-39.119
1.99	-39.119
1.94	-38.944
1.89	-38.865
1.82	-38.821
1.77	-38.632
1.69	-38.618
1.64	-38.526
1.56	-38.376
1.51	-38.282
1.44	-38.247
1.38	-38.122
1.30	-38.051
1.23	-37.957
1.18	-37.957
1.10	-37.775
1.05	-37.748
1.00	-37.748
0.93	-37.630
0.87	-37.576
0.80	-37.576
0.75	-37.436
0.67	-37.376
0.61	-37.376
0.54	-37.213
0.46	-37.259
0.41	-37.259
0.36	-37.084
0.29	-37.010
0.23	-37.010
0.16	-36.937
0.11	-36.845
0.03	-36.845
-0.02	-36.777
-0.10	-36.705
-0.15	-36.705
-0.20	-36.673
-0.27	-36.659
-0.35	-36.654
-0.40	-36.622
-0.48	-36.571
-0.53	-36.569
-0.61	-36.477
-0.66	-36.437
-0.74	-36.411
-0.79	-36.416
-0.86	-36.369
-0.91	-36.360
-0.96	-36.360
-1.04	-36.339
-1.12	-36.345
-1.17	-36.299
-1.25	-36.266
-1.29	-36.211
-1.37	-36.211
-1.45	-36.203
-1.50	-36.209
-1.55	-36.209
-1.62	-36.227
-1.67	-36.207
-1.75	-36.207
-1.80	-36.235
-1.88	-36.299
-1.93	-36.299
-2.00	-36.198
-2.06	-36.252
-2.13	-36.252
-2.18	-36.132
-2.25	-36.190
-2.30	-36.203
-2.38	-36.182
-2.43	-36.198
-2.51	-36.224
-2.56	-36.242
-2.64	-36.281
-2.75	-36.293
-2.80	-36.397
-2.85	-36.351
-2.92	-36.351
-2.97	-36.364
-3.05	-36.430
-3.10	-36.430
-3.17	-36.428
-3.22	-36.469
-3.30	-36.469
-3.35	-36.524
-3.43	-36.566
-3.50	-36.578
-3.55	-36.643
-3.65	-36.708
-3.70	-36.758
-3.75	-36.796
-3.83	-36.823
-3.88	-36.900
-3.96	-36.958
-4.03	-37.008
-4.08	-37.008
-4.13	-37.110
-4.21	-37.154
-4.26	-37.154
-4.34	-37.287
-4.39	-37.347
-4.46	-37.383
-4.52	-37.427
-4.59	-37.467
-4.64	-37.494
-4.72	-37.601
-4.79	-37.699
-4.84	-37.704
-4.89	-37.797
-4.97	-37.867
-5.05	-37.906
-5.10	-38.093
-5.16	-38.130
-5.23	-38.183
-5.28	-38.313
-5.35	-38.491
-5.41	-38.527
-5.48	-38.672
-5.54	-38.756
-5.61	-38.797
-5.67	-38.984
-5.75	-39.060
-5.80	-39.125
-5.84	-39.230
-5.92	-39.419
-6.00	-39.450
-6.05	-39.526
-6.12	-39.608
-6.17	-39.687
-6.22	-39.687
-6.30	-39.936
-6.35	-40.083
-6.43	-40.083
-6.48	-40.491
-6.56	-40.595
-6.63	-40.822
-6.71	-40.964
-6.76	-41.013
-6.83	-41.013
-6.89	-41.377
-6.96	-41.440
-7.02	-41.566
-7.07	-41.817
-7.15	-41.866
-7.20	-42.054
-7.27	-42.336
-7.32	-42.489
-7.39	-42.540
-7.44	-42.723
-7.52	-42.764
-7.57	-43.122
-7.62	-43.122
-7.70	-43.465
-7.78	-44.239
-7.83	-44.239
-7.90	-45.957
-7.98	-46.463
-8.02	-46.463
-8.08	-45.428
-8.15	-45.393
-8.21	-45.367
-8.28	-45.729
-8.34	-46.010
-8.39	-45.943
-8.47	-45.300
-8.54	-45.364
-8.61	-45.264
-8.66	-45.483
-8.74	-45.619
-8.79	-45.619
-8.87	-45.939
-8.92	-46.112
-9.00	-46.188
-9.08	-46.642
-9.15	-46.784
-9.20	-46.784
-9.25	-47.225
-9.32	-47.463
-9.39	-47.463
-9.45	-47.871
-9.52	-48.150
-9.57	-48.150
-9.65	-48.671
-9.70	-49.027
-9.75	-49.027
-9.83	-49.543
-9.90	-49.749
-9.95	-49.823
-10.00	-50.232
-10.08	-50.512
-10.13	-50.571
-10.21	-50.999
-10.26	-51.214
-10.31	-51.421
-10.36	-51.421
-10.44	-52.220
-10.51	-52.413
-10.56	-52.413
-10.64	-53.068
-10.69	-53.437
-10.76	-53.437
-10.82	-54.073
-10.90	-54.696
-10.95	-54.655
-11.00	-55.148
-11.08	-55.550
-11.13	-55.941
-11.20	-56.404
-11.25	-56.825
-11.33	-56.927
-11.38	-57.919
-11.46	-58.031
-11.51	-58.509
-11.59	-58.509
-11.64	-59.598
-11.69	-59.893
-11.77	-59.893
-11.82	-61.095
-11.87	-61.144
-11.94	-61.817
-11.99	-62.608
-12.07	-63.279
-12.12	-63.077
-12.20	-64.353
-12.25	-64.770
-12.32	-65.047
-12.37	-66.067
-12.44	-66.273
-12.50	-66.099
-12.54	-66.099
-12.62	-66.324
-12.67	-67.213
-12.75	-67.213
-12.80	-66.902
-12.88	-66.607
-12.93	-66.607
-13.01	-66.065
-13.08	-65.920
-13.13	-65.920
-13.21	-65.655
-13.26	-64.949
-13.36	-64.949
-13.42	-64.542
-13.46	-63.904
-13.54	-63.904
-13.59	-63.762
-13.67	-63.317
-13.72	-63.317
-13.79	-63.388
-13.85	-63.373
-13.92	-63.373
-13.98	-62.768
-14.05	-62.440
-14.11	-62.440
-14.16	-62.292
-14.23	-62.162
-14.31	-62.156
-14.36	-61.903
-14.44	-61.910
-14.49	-62.215
-14.56	-61.735
-14.64	-61.553
-14.72	-61.722
-14.77	-61.403
-14.85	-61.495
-14.90	-61.766
-14.97	-61.553
-15.03	-61.753
-15.10	-61.157
-15.15	-61.595
-15.22	-61.625
-15.27	-61.726
-15.38	-61.910
-15.43	-61.868
-15.51	-62.117
-15.56	-62.008
-15.63	-62.124
-15.68	-62.101
-15.76	-62.069
-15.81	-62.495
-15.88	-62.222
-15.94	-62.456
-16.02	-62.845
